# Wavelength (nm)	Smoothed Intensity
299.383362	22.897009
299.552002	23.132599
299.720612	23.385237
299.889191	23.614794
300.057800	23.863148
300.226379	24.124659
300.394958	24.377845
300.563538	24.615384
300.732117	24.855282
300.900696	25.092767
301.069244	25.340000
301.237793	25.597751
301.406342	25.833972
301.574890	26.069685
301.743408	26.324260
301.911957	26.580769
302.080475	26.837053
302.248993	27.066347
302.417480	27.324109
302.585999	27.569132
302.754486	27.826417
302.922974	28.067512
303.091461	28.313637
303.259949	28.559523
303.428436	28.793660
303.596893	29.026567
303.765350	29.269256
303.933807	29.528210
304.102264	29.776987
304.270691	30.019705
304.439117	30.254226
304.607574	30.496416
304.776001	30.710402
304.944397	30.966591
305.112823	31.174574
305.281219	31.403429
305.449615	31.635330
305.618011	31.864616
305.786407	32.102402
305.954773	32.327155
306.123169	32.555877
306.291534	32.788704
306.459900	33.007287
306.628235	33.213258
306.796600	33.435141
306.964935	33.661520
307.133270	33.875670
307.301605	34.087639
307.469940	34.308635
307.638245	34.516779
307.806580	34.730249
307.974884	34.926771
308.143188	35.137027
308.311462	35.326118
308.479767	35.533909
308.648041	35.753445
308.816315	35.954811
308.984589	36.159909
309.152863	36.363723
309.321106	36.558079
309.489380	36.750199
309.657623	36.948671
309.825867	37.151844
309.994080	37.358074
310.162323	37.568292
310.330536	37.755948
310.498749	37.963774
310.666962	38.147053
310.835175	38.313869
311.003357	38.505416
311.171539	38.685708
311.339752	38.880090
311.507904	39.077505
311.676086	39.250457
311.844238	39.426304
312.012421	39.591999
312.180573	39.753758
312.348724	39.913470
312.516846	40.073984
312.684998	40.250567
312.853119	40.412766
313.021240	40.563497
313.189362	40.727348
313.357452	40.885115
313.525574	41.029379
313.693665	41.186305
313.861755	41.309496
314.029846	41.452438
314.197937	41.617384
314.365997	41.769022
314.534058	41.920322
314.702118	42.060149
314.870178	42.206744
315.038239	42.365330
315.206268	42.529646
315.374298	42.673647
315.542328	42.825421
315.710358	42.983678
315.878357	43.125827
316.046387	43.263635
316.214386	43.396628
316.382385	43.537746
316.550385	43.672156
316.718353	43.816550
316.886353	43.939912
317.054321	44.076152
317.222290	44.215264
317.390259	44.368100
317.558197	44.515720
317.726135	44.630548
317.894104	44.757997
318.062012	44.907341
318.229950	45.026187
318.397888	45.152793
318.565796	45.266541
318.733704	45.386735
318.901611	45.478157
319.069519	45.592942
319.237396	45.692357
319.405304	45.801596
319.573181	45.934704
319.741058	46.031754
319.908905	46.128217
320.076782	46.223113
320.244629	46.342207
320.412476	46.428844
320.580322	46.533527
320.748169	46.628079
320.915985	46.707422
321.083801	46.826788
321.251617	46.919651
321.419434	47.004109
321.587250	47.106033
321.755035	47.186444
321.922821	47.278390
322.090607	47.369291
322.258392	47.497643
322.426178	47.603450
322.593933	47.716642
322.761719	47.807840
322.929474	47.900471
323.097198	48.019109
323.264954	48.118868
323.432678	48.221324
323.600403	48.323392
323.768127	48.424457
323.935852	48.513085
324.103577	48.592221
324.271271	48.675846
324.438965	48.747347
324.606659	48.824348
324.774353	48.902466
324.942047	48.974723
325.109711	49.051597
325.277374	49.125500
325.445038	49.202784
325.612701	49.268373
325.780334	49.322642
325.947968	49.394595
326.115631	49.483574
326.283234	49.564142
326.450867	49.621071
326.618500	49.704845
326.786102	49.768214
326.953705	49.811984
327.121307	49.896032
327.288879	49.969710
327.456482	50.053058
327.624054	50.119602
327.791626	50.186577
327.959198	50.248302
328.126770	50.314832
328.294312	50.390403
328.461853	50.471670
328.629395	50.550399
328.796936	50.604170
328.964478	50.682877
329.131989	50.762148
329.299500	50.831603
329.467010	50.896589
329.634521	50.941475
329.802002	51.024068
329.969513	51.097919
330.136993	51.178998
330.304474	51.257693
330.471954	51.319116
330.639404	51.406694
330.806854	51.457435
330.974335	51.529283
331.141754	51.605703
331.309204	51.696689
331.476654	51.791475
331.644073	51.871402
331.811493	51.946695
331.978912	52.000454
332.146332	52.084905
332.313721	52.157647
332.481110	52.238463
332.648499	52.321221
332.815887	52.373176
332.983276	52.457473
333.150635	52.482900
333.317993	52.531386
333.485352	52.593966
333.652710	52.658316
333.820068	52.726109
333.987396	52.771232
334.154724	52.845259
334.322052	52.903178
334.489380	52.929435
334.656708	52.946243
334.824005	52.969641
334.991302	52.984146
335.158600	53.028947
335.325897	53.080381
335.493164	53.117338
335.660431	53.158102
335.827728	53.199720
335.994965	53.210201
336.162231	53.258976
336.329498	53.284606
336.496735	53.340271
336.663971	53.360196
336.831207	53.385210
336.998413	53.423576
337.165649	53.455615
337.332855	53.466787
337.500061	53.522833
337.667267	53.572615
337.834442	53.633422
338.001648	53.705064
338.168823	53.753801
338.335999	53.828483
338.503174	53.871993
338.670319	53.910703
338.837494	53.961257
339.004639	53.997759
339.171783	54.022139
339.338898	54.073387
339.506042	54.112372
339.673157	54.138500
339.840271	54.187696
340.007385	54.247085
340.174500	54.300574
340.341583	54.342544
340.508667	54.383913
340.675751	54.448759
340.842834	54.477152
341.009918	54.503481
341.176971	54.561826
341.344055	54.597429
341.511108	54.644433
341.678131	54.673173
341.845184	54.701755
342.012207	54.742438
342.179230	54.781207
342.346252	54.808389
342.513275	54.851844
342.680298	54.895659
342.847290	54.939300
343.014282	54.974574
343.181274	55.012141
343.348267	55.042068
343.515228	55.078985
343.682190	55.113536
343.849152	55.152369
344.016113	55.167691
344.183075	55.199567
344.350006	55.245277
344.516968	55.268744
344.683899	55.301773
344.850800	55.332774
345.017731	55.356033
345.184631	55.377731
345.351532	55.420869
345.518433	55.427376
345.685333	55.473731
345.852234	55.495316
346.019104	55.518817
346.185974	55.544884
346.352844	55.581742
346.519714	55.614722
346.686554	55.643587
346.853424	55.659915
347.020264	55.680302
347.187073	55.704379
347.353912	55.749271
347.520721	55.769898
347.687561	55.797540
347.854370	55.832491
348.021179	55.850178
348.187958	55.860977
348.354736	55.873157
348.521545	55.905829
348.688324	55.919173
348.855072	55.979826
349.021851	55.980941
349.188599	55.997926
349.355347	56.021453
349.522095	56.047689
349.688843	56.082754
349.855560	56.091598
350.022308	56.110787
350.189026	56.130948
350.355743	56.143060
350.522430	56.158677
350.689148	56.185708
350.855835	56.207504
351.022522	56.229735
351.189209	56.251485
351.355865	56.278879
351.522522	56.311769
351.689209	56.357813
351.855865	56.382498
352.022491	56.411905
352.189148	56.411244
352.355774	56.448955
352.522400	56.489339
352.689026	56.522729
352.855652	56.523610
353.022247	56.553278
353.188843	56.562334
353.355438	56.596640
353.522034	56.622598
353.688629	56.670453
353.855194	56.706672
354.021759	56.707698
354.188324	56.707931
354.354889	56.730787
354.521454	56.740925
354.687988	56.776103
354.854523	56.803416
355.021057	56.812680
355.187592	56.847452
355.354095	56.886759
355.520599	56.913930
355.687134	56.950504
355.853607	56.951817
356.020111	56.969206
356.186584	57.015732
356.353088	57.030854
356.519562	57.080960
356.686005	57.106642
356.852478	57.130005
357.018921	57.159030
357.185364	57.162062
357.351807	57.188180
357.518250	57.216852
357.684692	57.237227
357.851105	57.255202
358.017517	57.274499
358.183929	57.277672
358.350311	57.300875
358.516724	57.305975
358.683105	57.311155
358.849487	57.336003
359.015869	57.345917
359.182220	57.368795
359.348602	57.376307
359.514954	57.393418
359.681305	57.409335
359.847656	57.412033
360.013977	57.410645
360.180298	57.416744
360.346649	57.415059
360.512939	57.424043
360.679260	57.465522
360.845581	57.485714
361.011871	57.503242
361.178162	57.533217
361.344452	57.541132
361.510712	57.572349
361.677002	57.590846
361.843262	57.604393
362.009521	57.610550
362.175751	57.612709
362.342010	57.635596
362.508240	57.655013
362.674469	57.682855
362.840698	57.692161
363.006927	57.705530
363.173126	57.724038
363.339325	57.738649
363.505524	57.762215
363.671722	57.781161
363.837921	57.823117
364.004089	57.826612
364.170258	57.847371
364.336426	57.864824
364.502594	57.873503
364.668762	57.892588
364.834900	57.874904
365.001038	57.892545
365.167175	57.930678
365.333282	57.949171
365.499420	57.981936
365.665527	57.977096
365.831635	57.996937
365.997742	58.007685
366.163818	58.010601
366.329926	58.028691
366.496002	58.046951
366.662079	58.070827
366.828156	58.084792
366.994202	58.100442
367.160248	58.097821
367.326294	58.099332
367.492340	58.115505
367.658386	58.112870
367.824402	58.134846
367.990448	58.147021
368.156464	58.188010
368.322449	58.221564
368.488464	58.195602
368.654449	58.217682
368.820435	58.202164
368.986420	58.205161
369.152405	58.220531
369.318390	58.248205
369.484344	58.269822
369.650299	58.291390
369.816254	58.309277
369.982178	58.312224
370.148132	58.325729
370.314056	58.329927
370.479980	58.360718
370.645905	58.383896
370.811798	58.412645
370.977692	58.444843
371.143616	58.440267
371.309479	58.459361
371.475372	58.469129
371.641266	58.458277
371.807129	58.494237
371.972992	58.512540
372.138855	58.568976
372.304688	58.589809
372.470551	58.604745
372.636383	58.616611
372.802216	58.635133
372.968018	58.637281
373.133850	58.668401
373.299652	58.692259
373.465454	58.714799
373.631256	58.757951
373.797058	58.769514
373.962830	58.800657
374.128601	58.804751
374.294373	58.821427
374.460144	58.842011
374.625916	58.855986
374.791656	58.865353
374.957397	58.873481
375.123138	58.874967
375.288879	58.869864
375.454590	58.841791
375.620331	58.856717
375.786041	58.872198
375.951721	58.872101
376.117432	58.878403
376.283112	58.899345
376.448822	58.916492
376.614471	58.924954
376.780151	58.921903
376.945831	58.915256
377.111481	58.941509
377.277130	58.941144
377.442780	58.949790
377.608429	58.942817
377.774048	58.954380
377.939667	58.957709
378.105286	58.956458
378.270905	58.971964
378.436523	58.987651
378.602112	59.003544
378.767700	59.018602
378.933289	59.028954
379.098877	59.026364
379.264435	59.037458
379.429993	59.047987
379.595551	59.048680
379.761108	59.022375
379.926666	59.036434
380.092194	59.062733
380.257721	59.057857
380.423248	59.039974
380.588776	59.041393
380.754272	59.043044
380.919800	59.050035
381.085297	59.056781
381.250793	59.066930
381.416260	59.081637
381.581757	59.106143
381.747223	59.129807
381.912689	59.123613
382.078125	59.152353
382.243591	59.177579
382.409027	59.182380
382.574463	59.188669
382.739899	59.192818
382.905334	59.201616
383.070740	59.248959
383.236176	59.264810
383.401581	59.278029
383.566956	59.294006
383.732361	59.309003
383.897736	59.310982
384.063110	59.328685
384.228485	59.355950
384.393860	59.380988
384.559204	59.399932
384.724579	59.404699
384.889923	59.400684
385.055237	59.409465
385.220581	59.450396
385.385895	59.460212
385.551239	59.460340
385.716522	59.482341
385.881836	59.497624
386.047150	59.518975
386.212433	59.534095
386.377716	59.546494
386.542999	59.567458
386.708252	59.572644
386.873535	59.592234
387.038788	59.610208
387.204041	59.618796
387.369293	59.633905
387.534515	59.637019
387.699738	59.617869
387.864960	59.623759
388.030182	59.652358
388.195404	59.654745
388.360596	59.678102
388.525787	59.679783
388.690979	59.699302
388.856171	59.717800
389.021362	59.725673
389.186523	59.729884
389.351685	59.730322
389.516846	59.727996
389.682007	59.750343
389.847137	59.734785
390.012268	59.756265
390.177399	59.748627
390.342529	59.759147
390.507629	59.772710
390.672760	59.759305
390.837860	59.738727
391.002960	59.764794
391.168030	59.758784
391.333130	59.770596
391.498199	59.801892
391.663269	59.786182
391.828339	59.770999
391.993378	59.762063
392.158447	59.755512
392.323486	59.763167
392.488525	59.752229
392.653534	59.748485
392.818573	59.767252
392.983582	59.742091
393.148590	59.776755
393.313599	59.748098
393.478577	59.777267
393.643585	59.786689
393.808563	59.793329
393.973541	59.802652
394.138489	59.828011
394.303467	59.842823
394.468414	59.883971
394.633362	59.876090
394.798309	59.877106
394.963226	59.906400
395.128174	59.927240
395.293091	59.939455
395.458008	59.947352
395.622894	59.956664
395.787811	59.993934
395.952698	60.020701
396.117584	60.037641
396.282471	60.030654
396.447327	60.032817
396.612213	60.045665
396.777069	60.057018
396.941925	60.050195
397.106750	60.077400
397.271606	60.086240
397.436432	60.095059
397.601257	60.101563
397.766083	60.087944
397.930878	60.111629
398.095703	60.126059
398.260498	60.124497
398.425293	60.135805
398.590057	60.134355
398.754852	60.150862
398.919617	60.167342
399.084381	60.162888
399.249146	60.180306
399.413879	60.183474
399.578644	60.208598
399.743378	60.206902
399.908112	60.238319
400.072815	60.233576
400.237549	60.241027
400.402252	60.232054
400.566956	60.249726
400.731659	60.242370
400.896332	60.242863
401.061035	60.241373
401.225708	60.247483
401.390381	60.244933
401.555023	60.252388
401.719696	60.266545
401.884338	60.296898
402.048981	60.290288
402.213623	60.269072
402.378235	60.276344
402.542847	60.289053
402.707489	60.293164
402.872070	60.305295
403.036682	60.326048
403.201294	60.327030
403.365875	60.346710
403.530457	60.361469
403.695007	60.368267
403.859589	60.402536
404.024139	60.449349
404.188690	60.441688
404.353241	60.459077
404.517792	60.451194
404.682312	60.459009
404.846832	60.453797
405.011353	60.450290
405.175873	60.443590
405.340393	60.479321
405.504883	60.516693
405.669373	60.531888
405.833862	60.533758
405.998322	60.534354
406.162811	60.529596
406.327271	60.542862
406.491730	60.544131
406.656189	60.548719
406.820618	60.548303
406.985046	60.554991
407.149475	60.555024
407.313904	60.536161
407.478333	60.557977
407.642731	60.564462
407.807129	60.585360
407.971527	60.618375
408.135925	60.601996
408.300293	60.606265
408.464661	60.609155
408.629028	60.619875
408.793396	60.606407
408.957764	60.625354
409.122101	60.607532
409.286438	60.620750
409.450775	60.617933
409.615112	60.611230
409.779419	60.616062
409.943726	60.608347
410.108032	60.630687
410.272339	60.658002
410.436646	60.661265
410.600922	60.662342
410.765198	60.689252
410.929474	60.672505
411.093750	60.675460
411.257996	60.667510
411.422241	60.693748
411.586487	60.719251
411.750732	60.735387
411.914948	60.730584
412.079193	60.759916
412.243408	60.780791
412.407623	60.825521
412.571808	60.822800
412.735992	60.851140
412.900208	60.852905
413.064392	60.893362
413.228546	60.892323
413.392731	60.908602
413.556885	60.933572
413.721039	60.925832
413.885193	60.966946
414.049316	60.953768
414.213470	60.994689
414.377594	60.990447
414.541718	60.990834
414.705811	61.012004
414.869934	60.990244
415.034027	61.001743
415.198120	61.025775
415.362213	61.047177
415.526276	61.038227
415.690338	61.042707
415.854431	61.040865
416.018463	61.041168
416.182526	61.019193
416.346558	61.008987
416.510620	61.054488
416.674622	61.057857
416.838654	61.052332
417.002686	61.077939
417.166687	61.097091
417.330688	61.105112
417.494690	61.139199
417.658661	61.169125
417.822662	61.193626
417.986633	61.202510
418.150604	61.219171
418.314545	61.220643
418.478516	61.236359
418.642456	61.215811
418.806396	61.242457
418.970337	61.234002
419.134247	61.274262
419.298187	61.283279
419.462097	61.331770
419.625977	61.351337
419.789886	61.338136
419.953766	61.338192
420.117676	61.341764
420.281555	61.363848
420.445404	61.362256
420.609283	61.383014
420.773132	61.354061
420.936981	61.363114
421.100830	61.385833
421.264648	61.394918
421.428497	61.407818
421.592316	61.431805
421.756134	61.430800
421.919922	61.462556
422.083740	61.443955
422.247528	61.455510
422.411316	61.440785
422.575104	61.445876
422.738861	61.440456
422.902618	61.459408
423.066406	61.489477
423.230133	61.482041
423.393890	61.480224
423.557617	61.475696
423.721344	61.463966
423.885071	61.503292
424.048798	61.524422
424.212524	61.525763
424.376221	61.489431
424.539917	61.508464
424.703583	61.520933
424.867279	61.496414
425.030945	61.496166
425.194611	61.507079
425.358276	61.531625
425.521942	61.558804
425.685577	61.586527
425.849213	61.613628
426.012848	61.630685
426.176483	61.623872
426.340118	61.619237
426.503723	61.644541
426.667328	61.666140
426.830933	61.662757
426.994507	61.655402
427.158112	61.622188
427.321686	61.631112
427.485229	61.615733
427.648804	61.647186
427.812378	61.657481
427.975922	61.673240
428.139465	61.712832
428.302979	61.713605
428.466522	61.718598
428.630035	61.710636
428.793549	61.716454
428.957062	61.705523
429.120575	61.685873
429.284058	61.709007
429.447540	61.721257
429.611023	61.753381
429.774506	61.767281
429.937958	61.772093
430.101410	61.798501
430.264862	61.844652
430.428314	61.843621
430.591736	61.854540
430.755188	61.899820
430.918610	61.922802
431.082031	61.938585
431.245422	61.947847
431.408813	61.946777
431.572235	61.965317
431.735596	61.967583
431.898987	61.972860
432.062378	61.974160
432.225739	61.984547
432.389099	62.035337
432.552429	62.048521
432.715790	62.069549
432.879120	62.069463
433.042450	62.073128
433.205780	62.076129
433.369110	62.055369
433.532410	62.054094
433.695709	62.092571
433.859009	62.107719
434.022308	62.120062
434.185577	62.142601
434.348846	62.144083
434.512115	62.151583
434.675385	62.169783
434.838654	62.162800
435.001892	62.177148
435.165131	62.207847
435.328369	62.216283
435.491577	62.256866
435.654816	62.240989
435.818024	62.242802
435.981232	62.245147
436.144409	62.252809
436.307617	62.249315
436.470795	62.265266
436.633972	62.293256
436.797119	62.315877
436.960297	62.327862
437.123444	62.343077
437.286591	62.351640
437.449738	62.329361
437.612885	62.329481
437.776001	62.351351
437.939117	62.353331
438.102234	62.364597
438.265350	62.374665
438.428436	62.361227
438.591522	62.372343
438.754608	62.356525
438.917694	62.351999
439.080750	62.351561
439.243835	62.306867
439.406891	62.301965
439.569916	62.321809
439.732971	62.327969
439.895996	62.347117
440.059021	62.346932
440.222046	62.353218
440.385071	62.365526
440.548065	62.371995
440.711060	62.390119
440.874054	62.404336
441.037048	62.399991
441.200012	62.410455
441.363007	62.446794
441.525970	62.440773
441.688904	62.455917
441.851868	62.464757
442.014801	62.490603
442.177734	62.534803
442.340668	62.548029
442.503601	62.597024
442.666504	62.607329
442.829407	62.626672
442.992310	62.631451
443.155212	62.639676
443.318085	62.663573
443.480957	62.653937
443.643829	62.644358
443.806702	62.645906
443.969543	62.641498
444.132416	62.632851
444.295258	62.640295
444.458069	62.667646
444.620911	62.653469
444.783722	62.662676
444.946533	62.673038
445.109344	62.677075
445.272156	62.690753
445.434937	62.671318
445.597717	62.663725
445.760498	62.685500
445.923279	62.704688
446.086060	62.712305
446.248810	62.738588
446.411560	62.742565
446.574280	62.728005
446.737030	62.765282
446.899750	62.788356
447.062469	62.787447
447.225189	62.820559
447.387909	62.833988
447.550598	62.865589
447.713287	62.964975
447.875977	63.003558
448.038666	63.027768
448.201324	63.054474
448.363983	63.066158
448.526642	63.070069
448.689301	63.076011
448.851929	63.099680
449.014587	63.081866
449.177216	63.099066
449.339813	63.109645
449.502441	63.114108
449.665039	63.122781
449.827637	63.130110
449.990234	63.151153
450.152832	63.160109
450.315399	63.179388
450.477966	63.178689
450.640533	63.179752
450.803101	63.184226
450.965637	63.073915
451.128174	63.075354
451.290710	63.051709
451.453247	63.025497
451.615784	63.027314
451.778290	63.022895
451.940796	63.025130
452.103302	63.056218
452.265778	63.078069
452.428253	63.062118
452.590729	63.037138
452.753204	63.060800
452.915680	63.065073
453.078125	63.083394
453.240570	63.071772
453.403015	63.061549
453.565460	63.080877
453.727875	63.086576
453.890289	63.096825
454.052704	63.094364
454.215118	63.101863
454.377533	63.056042
454.539917	63.089632
454.702301	63.150415
454.864685	63.180656
455.027039	63.209953
455.189392	63.235913
455.351746	63.252194
455.514099	63.257959
455.676453	63.278761
455.838776	63.327779
456.001099	63.336107
456.163422	63.336949
456.325745	63.319340
456.488037	63.310732
