# Wavelength (nm)	Smoothed Intensity
299.383362	45.316630
299.552002	45.591598
299.720612	45.864751
299.889191	46.097671
300.057800	46.343683
300.226379	46.606350
300.394958	46.874315
300.563538	47.142283
300.732117	47.405580
300.900696	47.667734
301.069244	47.912037
301.237793	48.177879
301.406342	48.464552
301.574890	48.696254
301.743408	48.938182
301.911957	49.167165
302.080475	49.432235
302.248993	49.689167
302.417480	49.939596
302.585999	50.198205
302.754486	50.450380
302.922974	50.693880
303.091461	50.928957
303.259949	51.155639
303.428436	51.392485
303.596893	51.616400
303.765350	51.854314
303.933807	52.083584
304.102264	52.306958
304.270691	52.535305
304.439117	52.742854
304.607574	52.959683
304.776001	53.148716
304.944397	53.390263
305.112823	53.614069
305.281219	53.815331
305.449615	54.003599
305.618011	54.196423
305.786407	54.426911
305.954773	54.605944
306.123169	54.825829
306.291534	55.029776
306.459900	55.236181
306.628235	55.445016
306.796600	55.655645
306.964935	55.863213
307.133270	56.063132
307.301605	56.256233
307.469940	56.459967
307.638245	56.638869
307.806580	56.825561
307.974884	57.021266
308.143188	57.216340
308.311462	57.388023
308.479767	57.575409
308.648041	57.772278
308.816315	57.964015
308.984589	58.138299
309.152863	58.309936
309.321106	58.491629
309.489380	58.633735
309.657623	58.793873
309.825867	58.950328
309.994080	59.130110
310.162323	59.298700
310.330536	59.459955
310.498749	59.634101
310.666962	59.802451
310.835175	59.942799
311.003357	60.082838
311.171539	60.249762
311.339752	60.416140
311.507904	60.565084
311.676086	60.711203
311.844238	60.863911
312.012421	61.010138
312.180573	61.146246
312.348724	61.285744
312.516846	61.390010
312.684998	61.551042
312.853119	61.687562
313.021240	61.821185
313.189362	61.948726
313.357452	62.066739
313.525574	62.171870
313.693665	62.304361
313.861755	62.401675
314.029846	62.485347
314.197937	62.607684
314.365997	62.743150
314.534058	62.866605
314.702118	62.953312
314.870178	63.047280
315.038239	63.167079
315.206268	63.265865
315.374298	63.358960
315.542328	63.470106
315.710358	63.588698
315.878357	63.718983
316.046387	63.797054
316.214386	63.903337
316.382385	64.002850
316.550385	64.107154
316.718353	64.187828
316.886353	64.290230
317.054321	64.387190
317.222290	64.494306
317.390259	64.604269
317.558197	64.708784
317.726135	64.795754
317.894104	64.880028
318.062012	64.992243
318.229950	65.075145
318.397888	65.181792
318.565796	65.274136
318.733704	65.367233
318.901611	65.435398
319.069519	65.534593
319.237396	65.635930
319.405304	65.736043
319.573181	65.823471
319.741058	65.904003
319.908905	65.987313
320.076782	66.079631
320.244629	66.152515
320.412476	66.214861
320.580322	66.273110
320.748169	66.362816
320.915985	66.418645
321.083801	66.501654
321.251617	66.554363
321.419434	66.604197
321.587250	66.719346
321.755035	66.773108
321.922821	66.843546
322.090607	66.917896
322.258392	67.022866
322.426178	67.081476
322.593933	67.151415
322.761719	67.208464
322.929474	67.272708
323.097198	67.363767
323.264954	67.441760
323.432678	67.522887
323.600403	67.604533
323.768127	67.687167
323.935852	67.767032
324.103577	67.826783
324.271271	67.903320
324.438965	67.954219
324.606659	68.046673
324.774353	68.143903
324.942047	68.175523
325.109711	68.248431
325.277374	68.335215
325.445038	68.366605
325.612701	68.415860
325.780334	68.468869
325.947968	68.494914
326.115631	68.562138
326.283234	68.616056
326.450867	68.648336
326.618500	68.705326
326.786102	68.746455
326.953705	68.789779
327.121307	68.834057
327.288879	68.879560
327.456482	68.948659
327.624054	69.003668
327.791626	69.057308
327.959198	69.082263
328.126770	69.103053
328.294312	69.154809
328.461853	69.198147
328.629395	69.234381
328.796936	69.296811
328.964478	69.353532
329.131989	69.408733
329.299500	69.471422
329.467010	69.527106
329.634521	69.578215
329.802002	69.632594
329.969513	69.693657
330.136993	69.763273
330.304474	69.828120
330.471954	69.871398
330.639404	69.951363
330.806854	69.993933
330.974335	70.051527
331.141754	70.091849
331.309204	70.146779
331.476654	70.206281
331.644073	70.272718
331.811493	70.321693
331.978912	70.350111
332.146332	70.422822
332.313721	70.475229
332.481110	70.535417
332.648499	70.586031
332.815887	70.640006
332.983276	70.694970
333.150635	70.725393
333.317993	70.783379
333.485352	70.819478
333.652710	70.862423
333.820068	70.919115
333.987396	70.947223
334.154724	70.978457
334.322052	71.019266
334.489380	71.068294
334.656708	71.093826
334.824005	71.124970
334.991302	71.143972
335.158600	71.183965
335.325897	71.240802
335.493164	71.269255
335.660431	71.299483
335.827728	71.325077
335.994965	71.346698
336.162231	71.367713
336.329498	71.405844
336.496735	71.449894
336.663971	71.444186
336.831207	71.482288
336.998413	71.508294
337.165649	71.535059
337.332855	71.558019
337.500061	71.616284
337.667267	71.640051
337.834442	71.675758
338.001648	71.726031
338.168823	71.760630
338.335999	71.805042
338.503174	71.830339
338.670319	71.843357
338.837494	71.870600
339.004639	71.897843
339.171783	71.906290
339.338898	71.949452
339.506042	71.965029
339.673157	71.976462
339.840271	72.003770
340.007385	72.030951
340.174500	72.074453
340.341583	72.122908
340.508667	72.154147
340.675751	72.182913
340.842834	72.192131
341.009918	72.218564
341.176971	72.261628
341.344055	72.303192
341.511108	72.354715
341.678131	72.376002
341.845184	72.393294
342.012207	72.423537
342.179230	72.447533
342.346252	72.465489
342.513275	72.515900
342.680298	72.544539
342.847290	72.569173
343.014282	72.608674
343.181274	72.639279
343.348267	72.688029
343.515228	72.705351
343.682190	72.693690
343.849152	72.713430
344.016113	72.745001
344.183075	72.780957
344.350006	72.814247
344.516968	72.837236
344.683899	72.851719
344.850800	72.858819
345.017731	72.886166
345.184631	72.909671
345.351532	72.941293
345.518433	72.968282
345.685333	72.996308
345.852234	73.009769
346.019104	73.025535
346.185974	73.052995
346.352844	73.058912
346.519714	73.089623
346.686554	73.083198
346.853424	73.078428
347.020264	73.106434
347.187073	73.118753
347.353912	73.144921
347.520721	73.141813
347.687561	73.156928
347.854370	73.168035
348.021179	73.181240
348.187958	73.191482
348.354736	73.188264
348.521545	73.231027
348.688324	73.251315
348.855072	73.283332
349.021851	73.283191
349.188599	73.280179
349.355347	73.290827
349.522095	73.301552
349.688843	73.323545
349.855560	73.325248
350.022308	73.362670
350.189026	73.396708
350.355743	73.423193
350.522430	73.427083
350.689148	73.441649
350.855835	73.473380
351.022522	73.483676
351.189209	73.497048
351.355865	73.502185
351.522522	73.519862
351.689209	73.565377
351.855865	73.574385
352.022491	73.584537
352.189148	73.580697
352.355774	73.615223
352.522400	73.650255
352.689026	73.669724
352.855652	73.682713
353.022247	73.712890
353.188843	73.728691
353.355438	73.730472
353.522034	73.735484
353.688629	73.744093
353.855194	73.788310
354.021759	73.801640
354.188324	73.815123
354.354889	73.855315
354.521454	73.880325
354.687988	73.904691
354.854523	73.938748
355.021057	73.940258
355.187592	73.957506
355.354095	73.995883
355.520599	74.019665
355.687134	74.029883
355.853607	74.019677
356.020111	74.041373
356.186584	74.066439
356.353088	74.067787
356.519562	74.073218
356.686005	74.068852
356.852478	74.086025
357.018921	74.096201
357.185364	74.082890
357.351807	74.079753
357.518250	74.081913
357.684692	74.073527
357.851105	74.058805
358.017517	74.096837
358.183929	74.091060
358.350311	74.102824
358.516724	74.094495
358.683105	74.093990
358.849487	74.096815
359.015869	74.121777
359.182220	74.159430
359.348602	74.162701
359.514954	74.164096
359.681305	74.173047
359.847656	74.217562
360.013977	74.260906
360.180298	74.254619
360.346649	74.263215
360.512939	74.291079
360.679260	74.328816
360.845581	74.350683
361.011871	74.370598
361.178162	74.396923
361.344452	74.387358
361.510712	74.407480
361.677002	74.422195
361.843262	74.442452
362.009521	74.443920
362.175751	74.461546
362.342010	74.474608
362.508240	74.491580
362.674469	74.515042
362.840698	74.523927
363.006927	74.543712
363.173126	74.539216
363.339325	74.514299
363.505524	74.565497
363.671722	74.575180
363.837921	74.593542
364.004089	74.602429
364.170258	74.623565
364.336426	74.626683
364.502594	74.636547
364.668762	74.643882
364.834900	74.626846
365.001038	74.644032
365.167175	74.668825
365.333282	74.684535
365.499420	74.686300
365.665527	74.683982
365.831635	74.679361
365.997742	74.679215
366.163818	74.716462
366.329926	74.721294
366.496002	74.737679
366.662079	74.771847
366.828156	74.741360
366.994202	74.771785
367.160248	74.783861
367.326294	74.784785
367.492340	74.795242
367.658386	74.801679
367.824402	74.801591
367.990448	74.812644
368.156464	74.853025
368.322449	74.860358
368.488464	74.843426
368.654449	74.849214
368.820435	74.853618
368.986420	74.858444
369.152405	74.884747
369.318390	74.908599
369.484344	74.893152
369.650299	74.925223
369.816254	74.935142
369.982178	74.965354
370.148132	75.004363
370.314056	75.004391
370.479980	75.021026
370.645905	75.037753
370.811798	75.019557
370.977692	75.027106
371.143616	75.040832
371.309479	75.054221
371.475372	75.053191
371.641266	75.061660
371.807129	75.061921
371.972992	75.071883
372.138855	75.101649
372.304688	75.110531
372.470551	75.105868
372.636383	75.107192
372.802216	75.123313
372.968018	75.109646
373.133850	75.120410
373.299652	75.120142
373.465454	75.108575
373.631256	75.113273
373.797058	75.091300
373.962830	75.078133
374.128601	75.103267
374.294373	75.101155
374.460144	75.123964
374.625916	75.135798
374.791656	75.137780
374.957397	75.142016
375.123138	75.167681
375.288879	75.177642
375.454590	75.176715
375.620331	75.177857
375.786041	75.198284
375.951721	75.199798
376.117432	75.191105
376.283112	75.190810
376.448822	75.178910
376.614471	75.171611
376.780151	75.185418
376.945831	75.205258
377.111481	75.215877
377.277130	75.256735
377.442780	75.274729
377.608429	75.288586
377.774048	75.285306
377.939667	75.273602
378.105286	75.284344
378.270905	75.291264
378.436523	75.303870
378.602112	75.288946
378.767700	75.275276
378.933289	75.275359
379.098877	75.251929
379.264435	75.244425
379.429993	75.264784
379.595551	75.292788
379.761108	75.290820
379.926666	75.304417
380.092194	75.308223
380.257721	75.283890
380.423248	75.292224
380.588776	75.263087
380.754272	75.244346
380.919800	75.239803
381.085297	75.242618
381.250793	75.236910
381.416260	75.222063
381.581757	75.243037
381.747223	75.250100
381.912689	75.272703
382.078125	75.299974
382.243591	75.293388
382.409027	75.309693
382.574463	75.312117
382.739899	75.307006
382.905334	75.287925
383.070740	75.310866
383.236176	75.318565
383.401581	75.322675
383.566956	75.356388
383.732361	75.382467
383.897736	75.376936
384.063110	75.407344
384.228485	75.428935
384.393860	75.444668
384.559204	75.478091
384.724579	75.485659
384.889923	75.480622
385.055237	75.492573
385.220581	75.494240
385.385895	75.489907
385.551239	75.533815
385.716522	75.530425
385.881836	75.566846
386.047150	75.588177
386.212433	75.591165
386.377716	75.600939
386.542999	75.606254
386.708252	75.612861
386.873535	75.605735
387.038788	75.596214
387.204041	75.612731
387.369293	75.595834
387.534515	75.582673
387.699738	75.561509
387.864960	75.562052
388.030182	75.579630
388.195404	75.558768
388.360596	75.565268
388.525787	75.560106
388.690979	75.568588
388.856171	75.567187
389.021362	75.586110
389.186523	75.563408
389.351685	75.548373
389.516846	75.575552
389.682007	75.595039
389.847137	75.602216
390.012268	75.611316
390.177399	75.631074
390.342529	75.638818
390.507629	75.634093
390.672760	75.613236
390.837860	75.636282
391.002960	75.644978
391.168030	75.653494
391.333130	75.675705
391.498199	75.691772
391.663269	75.684727
391.828339	75.697298
391.993378	75.721889
392.158447	75.725439
392.323486	75.739198
392.488525	75.726622
392.653534	75.738427
392.818573	75.738977
392.983582	75.704989
393.148590	75.729624
393.313599	75.709704
393.478577	75.713408
393.643585	75.708668
393.808563	75.741786
393.973541	75.765022
394.138489	75.766260
394.303467	75.793223
394.468414	75.784191
394.633362	75.780508
394.798309	75.772743
394.963226	75.770837
395.128174	75.776572
395.293091	75.772126
395.458008	75.774614
395.622894	75.764585
395.787811	75.805817
395.952698	75.839444
396.117584	75.842566
396.282471	75.848127
396.447327	75.830883
396.612213	75.841294
396.777069	75.826261
396.941925	75.818066
397.106750	75.804328
397.271606	75.823153
397.436432	75.826926
397.601257	75.833133
397.766083	75.849026
397.930878	75.863167
398.095703	75.883469
398.260498	75.891711
398.425293	75.901246
398.590057	75.879700
398.754852	75.883059
398.919617	75.891253
399.084381	75.882576
399.249146	75.872049
399.413879	75.864178
399.578644	75.888393
399.743378	75.892442
399.908112	75.921657
400.072815	75.942569
400.237549	75.976248
400.402252	75.994940
400.566956	75.997297
400.731659	75.999550
400.896332	76.009386
401.061035	76.020919
401.225708	75.998083
401.390381	75.985267
401.555023	75.980229
401.719696	75.992376
401.884338	76.007985
402.048981	75.990043
402.213623	76.012120
402.378235	76.021704
402.542847	76.041062
402.707489	76.037628
402.872070	76.052530
403.036682	76.045556
403.201294	76.051233
403.365875	76.043121
403.530457	76.016206
403.695007	75.993629
403.859589	76.015683
404.024139	76.045074
404.188690	76.014087
404.353241	75.993104
404.517792	76.014386
404.682312	76.036342
404.846832	76.049984
405.011353	76.042787
405.175873	76.068311
405.340393	76.073240
405.504883	76.069002
405.669373	76.062850
405.833862	76.054594
405.998322	76.067415
406.162811	76.051675
406.327271	76.076405
406.491730	76.051334
406.656189	76.068320
406.820618	76.080200
406.985046	76.082162
407.149475	76.056972
407.313904	76.033242
407.478333	76.050483
407.642731	76.087418
407.807129	76.097505
407.971527	76.121611
408.135925	76.095896
408.300293	76.092899
408.464661	76.089681
408.629028	76.111532
408.793396	76.082136
408.957764	76.096682
409.122101	76.078650
409.286438	76.076082
409.450775	76.066640
409.615112	76.057765
409.779419	76.079829
409.943726	76.050007
410.108032	76.081879
410.272339	76.118983
410.436646	76.125142
410.600922	76.131882
410.765198	76.132302
410.929474	76.090310
411.093750	76.104133
411.257996	76.054939
411.422241	76.074945
411.586487	76.085093
411.750732	76.074430
411.914948	76.077354
412.079193	76.113268
412.243408	76.127399
412.407623	76.161441
412.571808	76.162352
412.735992	76.199668
412.900208	76.194358
413.064392	76.201814
413.228546	76.193633
413.392731	76.178964
413.556885	76.186112
413.721039	76.185464
413.885193	76.200574
414.049316	76.212809
414.213470	76.235585
414.377594	76.213626
414.541718	76.234156
414.705811	76.253443
414.869934	76.216425
415.034027	76.223921
415.198120	76.250477
415.362213	76.264697
415.526276	76.273742
415.690338	76.271230
415.854431	76.281812
416.018463	76.281499
416.182526	76.283403
416.346558	76.270931
416.510620	76.321414
416.674622	76.330596
416.838654	76.328755
417.002686	76.346624
417.166687	76.366228
417.330688	76.385989
417.494690	76.420020
417.658661	76.433146
417.822662	76.459306
417.986633	76.469231
418.150604	76.490301
418.314545	76.460090
418.478516	76.446813
418.642456	76.420401
418.806396	76.426565
418.970337	76.411220
419.134247	76.436689
419.298187	76.428003
419.462097	76.443475
419.625977	76.466261
419.789886	76.489210
419.953766	76.514112
420.117676	76.500452
420.281555	76.526773
420.445404	76.514984
420.609283	76.509348
420.773132	76.492914
420.936981	76.493986
421.100830	76.512067
421.264648	76.536867
421.428497	76.566336
421.592316	76.606387
421.756134	76.616440
421.919922	76.639329
422.083740	76.653365
422.247528	76.678783
422.411316	76.665910
422.575104	76.654503
422.738861	76.670289
422.902618	76.717043
423.066406	76.724641
423.230133	76.700827
423.393890	76.714916
423.557617	76.716547
423.721344	76.726466
423.885071	76.742274
424.048798	76.754628
424.212524	76.753236
424.376221	76.707663
424.539917	76.687570
424.703583	76.678564
424.867279	76.692109
425.030945	76.682051
425.194611	76.693685
425.358276	76.680411
425.521942	76.693157
425.685577	76.728882
425.849213	76.762882
426.012848	76.776943
426.176483	76.727716
426.340118	76.728509
426.503723	76.758475
426.667328	76.783600
426.830933	76.796030
426.994507	76.801548
427.158112	76.785249
427.321686	76.780133
427.485229	76.797958
427.648804	76.838037
427.812378	76.856782
427.975922	76.870231
428.139465	76.899438
428.302979	76.915945
428.466522	76.914101
428.630035	76.907662
428.793549	76.890530
428.957062	76.861649
429.120575	76.856333
429.284058	76.850853
429.447540	76.889741
429.611023	76.906255
429.774506	76.913953
429.937958	76.900131
430.101410	76.899759
430.264862	76.892283
430.428314	76.925154
430.591736	76.960616
430.755188	76.987866
430.918610	77.018177
431.082031	77.013324
431.245422	77.016070
431.408813	76.996868
431.572235	77.021802
431.735596	77.063936
431.898987	77.077235
432.062378	77.094994
432.225739	77.088342
432.389099	77.161215
432.552429	77.158078
432.715790	77.156318
432.879120	77.144746
433.042450	77.154177
433.205780	77.190328
433.369110	77.156538
433.532410	77.171251
433.695709	77.197776
433.859009	77.189159
434.022308	77.193238
434.185577	77.203168
434.348846	77.231980
434.512115	77.256197
434.675385	77.262676
434.838654	77.267289
435.001892	77.245878
435.165131	77.247760
435.328369	77.269456
435.491577	77.315718
435.654816	77.249634
435.818024	77.244470
435.981232	77.245738
436.144409	77.262358
436.307617	77.265027
436.470795	77.248028
436.633972	77.294670
436.797119	77.330279
436.960297	77.304720
437.123444	77.312453
437.286591	77.319545
437.449738	77.312810
437.612885	77.298488
437.776001	77.319280
437.939117	77.343441
438.102234	77.344878
438.265350	77.341773
438.428436	77.333106
438.591522	77.323209
438.754608	77.317448
438.917694	77.325008
439.080750	77.331474
439.243835	77.329362
439.406891	77.297725
439.569916	77.299088
439.732971	77.328676
439.895996	77.335339
440.059021	77.321904
440.222046	77.349620
440.385071	77.353879
440.548065	77.353946
440.711060	77.351691
440.874054	77.375504
441.037048	77.378231
441.200012	77.377261
441.363007	77.396752
441.525970	77.411222
441.688904	77.429800
441.851868	77.443973
442.014801	77.467580
442.177734	77.493687
442.340668	77.502186
442.503601	77.516255
442.666504	77.535691
442.829407	77.546152
442.992310	77.525535
443.155212	77.540007
443.318085	77.546045
443.480957	77.525970
443.643829	77.515841
443.806702	77.510099
443.969543	77.525735
444.132416	77.524338
444.295258	77.537990
444.458069	77.548721
444.620911	77.539172
444.783722	77.540044
444.946533	77.562924
445.109344	77.554825
445.272156	77.531142
445.434937	77.523324
445.597717	77.550699
445.760498	77.566415
445.923279	77.587672
446.086060	77.575873
446.248810	77.588147
446.411560	77.596717
446.574280	77.579810
446.737030	77.587512
446.899750	77.605962
447.062469	77.617729
447.225189	77.617020
447.387909	77.614262
447.550598	77.607871
447.713287	77.709153
447.875977	77.726019
448.038666	77.734701
448.201324	77.746840
448.363983	77.764442
448.526642	77.809098
448.689301	77.820114
448.851929	77.814625
449.014587	77.816012
449.177216	77.817500
449.339813	77.832106
449.502441	77.833598
449.665039	77.832050
449.827637	77.849162
449.990234	77.850165
450.152832	77.850235
450.315399	77.855741
450.477966	77.893980
450.640533	77.918805
450.803101	77.976136
450.965637	77.886299
451.128174	77.874523
451.290710	77.850258
451.453247	77.841492
451.615784	77.847875
451.778290	77.788231
451.940796	77.793606
452.103302	77.804529
452.265778	77.792616
452.428253	77.779157
452.590729	77.742577
452.753204	77.770711
452.915680	77.767898
453.078125	77.776498
453.240570	77.794918
453.403015	77.800751
453.565460	77.781850
453.727875	77.763549
453.890289	77.732048
454.052704	77.666219
454.215118	77.666749
454.377533	77.676825
454.539917	77.703046
454.702301	77.714071
454.864685	77.724703
455.027039	77.773354
455.189392	77.794941
455.351746	77.829799
455.514099	77.837382
455.676453	77.863211
455.838776	77.919418
456.001099	77.915765
456.163422	77.918946
456.325745	77.923849
456.488037	77.929924
