# Wavelength (nm)	Smoothed Intensity
299.383362	22.899752
299.552002	23.140490
299.720612	23.382249
299.889191	23.624948
300.057800	23.868510
300.226379	24.112855
300.394958	24.357904
300.563538	24.603578
300.732117	24.849797
300.900696	25.096483
301.069244	25.343557
301.237793	25.590939
301.406342	25.838551
301.574890	26.086313
301.743408	26.334146
301.911957	26.581971
302.080475	26.829710
302.248993	27.077282
302.417480	27.324609
302.585999	27.571612
302.754486	27.940817
302.922974	28.185579
303.091461	28.430313
303.259949	28.674363
303.428436	28.917584
303.596893	29.160306
303.765350	29.402685
303.933807	29.644057
304.102264	29.883998
304.270691	30.122719
304.439117	30.360218
304.607574	30.597419
304.776001	30.832838
304.944397	31.066979
305.112823	31.299667
305.281219	31.530613
305.449615	31.760572
305.618011	31.988292
305.786407	32.214832
305.954773	32.440056
306.123169	32.664461
306.291534	32.887182
306.459900	33.108235
306.628235	33.327578
306.796600	33.544694
306.964935	33.760331
307.133270	33.974087
307.301605	34.187613
307.469940	34.401125
307.638245	34.613444
307.806580	34.824688
307.974884	35.034654
308.143188	35.242208
308.311462	35.449883
308.479767	35.655678
308.648041	35.860545
308.816315	36.064603
308.984589	36.267694
309.152863	36.470024
309.321106	36.670508
309.489380	36.869838
309.657623	37.068549
309.825867	37.265554
309.994080	37.460486
310.162323	37.654278
310.330536	37.846577
310.498749	38.038044
310.666962	38.227612
310.835175	38.414810
311.003357	38.599727
311.171539	38.782572
311.339752	38.963055
311.507904	39.141344
311.676086	39.316177
311.844238	39.488118
312.012421	39.658545
312.180573	39.826597
312.348724	39.992306
312.516846	40.156360
312.684998	40.318574
312.853119	40.478983
313.021240	40.637520
313.189362	40.794703
313.357452	40.950438
313.525574	41.105852
313.693665	41.259702
313.861755	41.412822
314.029846	41.564042
314.197937	41.713070
314.365997	41.862080
314.534058	42.010178
314.702118	42.157278
314.870178	42.304914
315.038239	42.451969
315.206268	42.599033
315.374298	42.745437
315.542328	42.891931
315.710358	43.037344
315.878357	43.182130
316.046387	43.326448
316.214386	43.468978
316.382385	43.610604
316.550385	43.751662
316.718353	43.891854
316.886353	44.029673
317.054321	44.166709
317.222290	44.300757
317.390259	44.432679
317.558197	44.563710
317.726135	44.691868
317.894104	44.818183
318.062012	44.942393
318.229950	45.063991
318.397888	45.184231
318.565796	45.302956
318.733704	45.419515
318.901611	45.533001
319.069519	45.644873
319.237396	45.754512
319.405304	45.862705
319.573181	45.969216
319.741058	46.073535
319.908905	46.176336
320.076782	46.278065
320.244629	46.378093
320.412476	46.477058
320.580322	46.575680
320.748169	46.674975
320.915985	46.774768
321.083801	46.874289
321.251617	46.973706
321.419434	47.073922
321.587250	47.174099
321.755035	47.274352
321.922821	47.374315
322.090607	47.474099
322.258392	47.572933
322.426178	47.671878
322.593933	47.769531
322.761719	47.865620
322.929474	47.961566
323.097198	48.056925
323.264954	48.150543
323.432678	48.243043
323.600403	48.335920
323.768127	48.426367
323.935852	48.515466
324.103577	48.602529
324.271271	48.687530
324.438965	48.771919
324.606659	48.854918
324.774353	48.935901
324.942047	49.015172
325.109711	49.091757
325.277374	49.166203
325.445038	49.239358
325.612701	49.311826
325.780334	49.383081
325.947968	49.454017
326.115631	49.524100
326.283234	49.594071
326.450867	49.663652
326.618500	49.732810
326.786102	49.801652
326.953705	49.870575
327.121307	49.940428
327.288879	50.009985
327.456482	50.080357
327.624054	50.150912
327.791626	50.221104
327.959198	50.290732
328.126770	50.359947
328.294312	50.429260
328.461853	50.499087
328.629395	50.570085
328.796936	50.641230
328.964478	50.712580
329.131989	50.783331
329.299500	50.854066
329.467010	50.926606
329.634521	50.999491
329.802002	51.073854
329.969513	51.149500
330.136993	51.225014
330.304474	51.299360
330.471954	51.373813
330.639404	51.448778
330.806854	51.523512
330.974335	51.598000
331.141754	51.673169
331.309204	51.748694
331.476654	51.824033
331.644073	51.899461
331.811493	51.973845
331.978912	52.046843
332.146332	52.117908
332.313721	52.187644
332.481110	52.256006
332.648499	52.323598
332.815887	52.388597
332.983276	52.450876
333.150635	52.510603
333.317993	52.568798
333.485352	52.625420
333.652710	52.679886
333.820068	52.731753
333.987396	52.782697
334.154724	52.829632
334.322052	52.873693
334.489380	52.914892
334.656708	52.953827
334.824005	52.992001
334.991302	53.028352
335.158600	53.064248
335.325897	53.099144
335.493164	53.133924
335.660431	53.168941
335.827728	53.205101
335.994965	53.241749
336.162231	53.278419
336.329498	53.316946
336.496735	53.354318
336.663971	53.391076
336.831207	53.428220
336.998413	53.466497
337.165649	53.506279
337.332855	53.546075
337.500061	53.588562
337.667267	53.633320
337.834442	53.677988
338.001648	53.722944
338.168823	53.767807
338.335999	53.812678
338.503174	53.858462
338.670319	53.904942
338.837494	53.951653
339.004639	53.999069
339.171783	54.046551
339.338898	54.092791
339.506042	54.139135
339.673157	54.184959
339.840271	54.231238
340.007385	54.276800
340.174500	54.321307
340.341583	54.365190
340.508667	54.407931
340.675751	54.449289
340.842834	54.490071
341.009918	54.529594
341.176971	54.569171
341.344055	54.608969
341.511108	54.648318
341.678131	54.688580
341.845184	54.728689
342.012207	54.767636
342.179230	54.807195
342.346252	54.845299
342.513275	54.882339
342.680298	54.919130
342.847290	54.955090
343.014282	54.989257
343.181274	55.022650
343.348267	55.055940
343.515228	55.089463
343.682190	55.122615
343.849152	55.155205
344.016113	55.187537
344.183075	55.219285
344.350006	55.249983
344.516968	55.280648
344.683899	55.311164
344.850800	55.342156
345.017731	55.372773
345.184631	55.402154
345.351532	55.431459
345.518433	55.459000
345.685333	55.486623
345.852234	55.514209
346.019104	55.541587
346.185974	55.568763
346.352844	55.595228
346.519714	55.622084
346.686554	55.648595
346.853424	55.674985
347.020264	55.701461
347.187073	55.728044
347.353912	55.753398
347.520721	55.778318
347.687561	55.803408
347.854370	55.827915
348.021179	55.852022
348.187958	55.875570
348.354736	55.897937
348.521545	55.919942
348.688324	55.942303
348.855072	55.964675
349.021851	55.987073
349.188599	56.008691
349.355347	56.029956
349.522095	56.052114
349.688843	56.074464
349.855560	56.097692
350.022308	56.120740
350.189026	56.143496
350.355743	56.165354
350.522430	56.187032
350.689148	56.210671
350.855835	56.235249
351.022522	56.260072
351.189209	56.285905
351.355865	56.311186
351.522522	56.335944
351.689209	56.360749
351.855865	56.385389
352.022491	56.409084
352.189148	56.434283
352.355774	56.458536
352.522400	56.483580
352.689026	56.508884
352.855652	56.533540
353.022247	56.559190
353.188843	56.583591
353.355438	56.608078
353.522034	56.632722
353.688629	56.656935
353.855194	56.681634
354.021759	56.706243
354.188324	56.730484
354.354889	56.754651
354.521454	56.778729
354.687988	56.802815
354.854523	56.827647
355.021057	56.853006
355.187592	56.878791
355.354095	56.905046
355.520599	56.929747
355.687134	56.954810
355.853607	56.979945
356.020111	57.005545
356.186584	57.029896
356.353088	57.054020
356.519562	57.077504
356.686005	57.101267
356.852478	57.124633
357.018921	57.148718
357.185364	57.172758
357.351807	57.194275
357.518250	57.213982
357.684692	57.232753
357.851105	57.249654
358.017517	57.266481
358.183929	57.282176
358.350311	57.296581
358.516724	57.310839
358.683105	57.325483
358.849487	57.340219
359.015869	57.354708
359.182220	57.367805
359.348602	57.379778
359.514954	57.392566
359.681305	57.404909
359.847656	57.418072
360.013977	57.431490
360.180298	57.444852
360.346649	57.458692
360.512939	57.471308
360.679260	57.485062
360.845581	57.499469
361.011871	57.514455
361.178162	57.530269
361.344452	57.546583
361.510712	57.563998
361.677002	57.581780
361.843262	57.598589
362.009521	57.615191
362.175751	57.631871
362.342010	57.649475
362.508240	57.667490
362.674469	57.685671
362.840698	57.704557
363.006927	57.723496
363.173126	57.741950
363.339325	57.759457
363.505524	57.776565
363.671722	57.792762
363.837921	57.808914
364.004089	57.826006
364.170258	57.842757
364.336426	57.859720
364.502594	57.876465
364.668762	57.892584
364.834900	57.908019
365.001038	57.922865
365.167175	57.939070
365.333282	57.954340
365.499420	57.969728
365.665527	57.985097
365.831635	57.999869
365.997742	58.014055
366.163818	58.027324
366.329926	58.039871
366.496002	58.052088
366.662079	58.064369
366.828156	58.076643
366.994202	58.089103
367.160248	58.101807
367.326294	58.113807
367.492340	58.125638
367.658386	58.137247
367.824402	58.149670
367.990448	58.162339
368.156464	58.174095
368.322449	58.186763
368.488464	58.199466
368.654449	58.212383
368.820435	58.224943
368.986420	58.237289
369.152405	58.250524
369.318390	58.264406
369.484344	58.278308
369.650299	58.293324
369.816254	58.308408
369.982178	58.324210
370.148132	58.340509
370.314056	58.356744
370.479980	58.373427
370.645905	58.389853
370.811798	58.407517
370.977692	58.425071
371.143616	58.443228
371.309479	58.461861
371.475372	58.482255
371.641266	58.504292
371.807129	58.525750
371.972992	58.548337
372.138855	58.571070
372.304688	58.592602
372.470551	58.613303
372.636383	58.634194
372.802216	58.654771
372.968018	58.674527
373.133850	58.693543
373.299652	58.711517
373.465454	58.729096
373.631256	58.745822
373.797058	58.761439
373.962830	58.776767
374.128601	58.791695
374.294373	58.806987
374.460144	58.820472
374.625916	58.833250
374.791656	58.845054
374.957397	58.854306
375.123138	58.862789
375.288879	58.870001
375.454590	58.877677
375.620331	58.884924
375.786041	58.892005
375.951721	58.898255
376.117432	58.903995
376.283112	58.908932
376.448822	58.915023
376.614471	58.920503
376.780151	58.925107
376.945831	58.931037
377.111481	58.937598
377.277130	58.944799
377.442780	58.951676
377.608429	58.958530
377.774048	58.965648
377.939667	58.972795
378.105286	58.979751
378.270905	58.986265
378.436523	58.992281
378.602112	58.998621
378.767700	59.002932
378.933289	59.007014
379.098877	59.011793
379.264435	59.016603
379.429993	59.021695
379.595551	59.027489
379.761108	59.032686
379.926666	59.038409
380.092194	59.044325
380.257721	59.050118
380.423248	59.057126
380.588776	59.064866
380.754272	59.073041
380.919800	59.080743
381.085297	59.088827
381.250793	59.097290
381.416260	59.106406
381.581757	59.117000
381.747223	59.128564
381.912689	59.140074
382.078125	59.152849
382.243591	59.167034
382.409027	59.181253
382.574463	59.196278
382.739899	59.211916
382.905334	59.228033
383.070740	59.243493
383.236176	59.259351
383.401581	59.276726
383.566956	59.293876
383.732361	59.310189
383.897736	59.326527
384.063110	59.342508
384.228485	59.358635
384.393860	59.375450
384.559204	59.391892
384.724579	59.407293
384.889923	59.423073
385.055237	59.438499
385.220581	59.453204
385.385895	59.467778
385.551239	59.482300
385.716522	59.496414
385.881836	59.510167
386.047150	59.523437
386.212433	59.536303
386.377716	59.549399
386.542999	59.563060
386.708252	59.575734
386.873535	59.588600
387.038788	59.600882
387.204041	59.611954
387.369293	59.623305
387.534515	59.635415
387.699738	59.646532
387.864960	59.657756
388.030182	59.667850
388.195404	59.675782
388.360596	59.683716
388.525787	59.692756
388.690979	59.701466
388.856171	59.709224
389.021362	59.716289
389.186523	59.723136
389.351685	59.729708
389.516846	59.735054
389.682007	59.740717
389.847137	59.744874
390.012268	59.749372
390.177399	59.752607
390.342529	59.755536
390.507629	59.758026
390.672760	59.760326
390.837860	59.761549
391.002960	59.761275
391.168030	59.759551
391.333130	59.759279
391.498199	59.759144
391.663269	59.759029
391.828339	59.758679
391.993378	59.759234
392.158447	59.760976
392.323486	59.763550
392.488525	59.765928
392.653534	59.768564
392.818573	59.771785
392.983582	59.777418
393.148590	59.783567
393.313599	59.791184
393.478577	59.799270
393.643585	59.809085
393.808563	59.819532
393.973541	59.830314
394.138489	59.840930
394.303467	59.853159
394.468414	59.866452
394.633362	59.879993
394.798309	59.895089
394.963226	59.910550
395.128174	59.925652
395.293091	59.940875
395.458008	59.955453
395.622894	59.969898
395.787811	59.984150
395.952698	59.997453
396.117584	60.011160
396.282471	60.022691
396.447327	60.035251
396.612213	60.045167
396.777069	60.055884
396.941925	60.066175
397.106750	60.076411
397.271606	60.085596
397.436432	60.095281
397.601257	60.104735
397.766083	60.115096
397.930878	60.124238
398.095703	60.132632
398.260498	60.140961
398.425293	60.148827
398.590057	60.155500
398.754852	60.162249
398.919617	60.169467
399.084381	60.177141
399.249146	60.184932
399.413879	60.192951
399.578644	60.199997
399.743378	60.206092
399.908112	60.212419
400.072815	60.218296
400.237549	60.223270
400.402252	60.228975
400.566956	60.233908
400.731659	60.237910
400.896332	60.243039
401.061035	60.247442
401.225708	60.253399
401.390381	60.259987
401.555023	60.267010
401.719696	60.274740
401.884338	60.282666
402.048981	60.289927
402.213623	60.296805
402.378235	60.303484
402.542847	60.311262
402.707489	60.319590
402.872070	60.329448
403.036682	60.339143
403.201294	60.350428
403.365875	60.361820
403.530457	60.373855
403.695007	60.385521
403.859589	60.397997
404.024139	60.410867
404.188690	60.422736
404.353241	60.434088
404.517792	60.444664
404.682312	60.453792
404.846832	60.463639
405.011353	60.473558
405.175873	60.484298
405.340393	60.494194
405.504883	60.503312
405.669373	60.511304
405.833862	60.519699
405.998322	60.526907
406.162811	60.533809
406.327271	60.540839
406.491730	60.546775
406.656189	60.552744
406.820618	60.557533
406.985046	60.560863
407.149475	60.564878
407.313904	60.570414
407.478333	60.574656
407.642731	60.580174
407.807129	60.585151
407.971527	60.590460
408.135925	60.594321
408.300293	60.596915
408.464661	60.598496
408.629028	60.601508
408.793396	60.605066
408.957764	60.609020
409.122101	60.612240
409.286438	60.616539
409.450775	60.620509
409.615112	60.625863
409.779419	60.630809
409.943726	60.637087
410.108032	60.643785
410.272339	60.650896
410.436646	60.659338
410.600922	60.666450
410.765198	60.675757
410.929474	60.684716
411.093750	60.695676
411.257996	60.708962
411.422241	60.721932
411.586487	60.736733
411.750732	60.751861
411.914948	60.767187
412.079193	60.781907
412.243408	60.798265
412.407623	60.814159
412.571808	60.830784
412.735992	60.847299
412.900208	60.864051
413.064392	60.880681
413.228546	60.894581
413.392731	60.908563
413.556885	60.923173
413.721039	60.936382
413.885193	60.948385
414.049316	60.960632
414.213470	60.970543
414.377594	60.979035
414.541718	60.985901
414.705811	60.993016
414.869934	61.000183
415.034027	61.007667
415.198120	61.014048
415.362213	61.021836
415.526276	61.028982
415.690338	61.037888
415.854431	61.045078
416.018463	61.053046
416.182526	61.059505
416.346558	61.067302
416.510620	61.076107
416.674622	61.085873
416.838654	61.096805
417.002686	61.106980
417.166687	61.119181
417.330688	61.130553
417.494690	61.144902
417.658661	61.159001
417.822662	61.172464
417.986633	61.186655
418.150604	61.199732
418.314545	61.212458
418.478516	61.226324
418.642456	61.240162
418.806396	61.254651
418.970337	61.268915
419.134247	61.283512
419.298187	61.297534
419.462097	61.310243
419.625977	61.320879
419.789886	61.331307
419.953766	61.341487
420.117676	61.350616
420.281555	61.359835
420.445404	61.369120
420.609283	61.376209
420.773132	61.383066
420.936981	61.390508
421.100830	61.399674
421.264648	61.407824
421.428497	61.415621
421.592316	61.423776
421.756134	61.431745
421.919922	61.437644
422.083740	61.442797
422.247528	61.445974
422.411316	61.449247
422.575104	61.451802
422.738861	61.455832
422.902618	61.461372
423.066406	61.466952
423.230133	61.471847
423.393890	61.476421
423.557617	61.482370
423.721344	61.488855
423.885071	61.497459
424.048798	61.504448
424.212524	61.511922
424.376221	61.518734
424.539917	61.525390
424.703583	61.531932
424.867279	61.538187
425.030945	61.544843
425.194611	61.553014
425.358276	61.561218
425.521942	61.569903
425.685577	61.578549
425.849213	61.587919
426.012848	61.595903
426.176483	61.603936
426.340118	61.612004
426.503723	61.619577
426.667328	61.627120
426.830933	61.633697
426.994507	61.638403
427.158112	61.645108
427.321686	61.652846
427.485229	61.659787
427.648804	61.665331
427.812378	61.671738
427.975922	61.679068
428.139465	61.686098
428.302979	61.692757
428.466522	61.700008
428.630035	61.708237
428.793549	61.717761
428.957062	61.728374
429.120575	61.738888
429.284058	61.750651
429.447540	61.762480
429.611023	61.775088
429.774506	61.789367
429.937958	61.805252
430.101410	61.822506
430.264862	61.839906
430.428314	61.854773
430.591736	61.869493
430.755188	61.883131
430.918610	61.897071
431.082031	61.911387
431.245422	61.925992
431.408813	61.941539
431.572235	61.957540
431.735596	61.973202
431.898987	61.987399
432.062378	62.001433
432.225739	62.013429
432.389099	62.024903
432.552429	62.036491
432.715790	62.047697
432.879120	62.059079
433.042450	62.070373
433.205780	62.080421
433.369110	62.089705
433.532410	62.099520
433.695709	62.108640
433.859009	62.117339
434.022308	62.127313
434.185577	62.138928
434.348846	62.150953
434.512115	62.162360
434.675385	62.173469
434.838654	62.184624
435.001892	62.195267
435.165131	62.206225
435.328369	62.216261
435.491577	62.226579
435.654816	62.238294
435.818024	62.249962
435.981232	62.263355
436.144409	62.275929
436.307617	62.286869
436.470795	62.296703
436.633972	62.303961
436.797119	62.309957
436.960297	62.316013
437.123444	62.321237
437.286591	62.325842
437.449738	62.329931
437.612885	62.333008
437.776001	62.335965
437.939117	62.338682
438.102234	62.339389
438.265350	62.340535
438.428436	62.342069
438.591522	62.343568
438.754608	62.345880
438.917694	62.346518
439.080750	62.347383
439.243835	62.347315
439.406891	62.348134
439.569916	62.349071
439.732971	62.351403
439.895996	62.355550
440.059021	62.360945
440.222046	62.368518
440.385071	62.378272
440.548065	62.389470
440.711060	62.400955
440.874054	62.413421
441.037048	62.427037
441.200012	62.440440
441.363007	62.455525
441.525970	62.471305
441.688904	62.486791
441.851868	62.503057
442.014801	62.518642
442.177734	62.534941
442.340668	62.551362
442.503601	62.564834
442.666504	62.576737
442.829407	62.588450
442.992310	62.598850
443.155212	62.609335
443.318085	62.619731
443.480957	62.628281
443.643829	62.635926
443.806702	62.643344
443.969543	62.649763
444.132416	62.655947
444.295258	62.660566
444.458069	62.662046
444.620911	62.664265
444.783722	62.666344
444.946533	62.668992
445.109344	62.672552
445.272156	62.677912
445.434937	62.685790
445.597717	62.694504
445.760498	62.707030
445.923279	62.720633
446.086060	62.735945
446.248810	62.752603
446.411560	62.770474
446.574280	62.790200
446.737030	62.809979
446.899750	62.830086
447.062469	62.850404
447.225189	62.871286
447.387909	62.892192
447.550598	62.913365
447.713287	62.939298
447.875977	62.963566
448.038666	62.987672
448.201324	63.011432
448.363983	63.033337
448.526642	63.053891
448.689301	63.071402
448.851929	63.085090
449.014587	63.096544
449.177216	63.107128
449.339813	63.116511
449.502441	63.123563
449.665039	63.128295
449.827637	63.129385
449.990234	63.129887
450.152832	63.129251
450.315399	63.125475
450.477966	63.120488
450.640533	63.113545
450.803101	63.105935
450.965637	63.100372
451.128174	63.096978
451.290710	63.092426
451.453247	63.086439
451.615784	63.080165
451.778290	63.073646
451.940796	63.067324
452.103302	63.062496
452.265778	63.058054
452.428253	63.054789
452.590729	63.051763
452.753204	63.050516
452.915680	63.051491
453.078125	63.055230
453.240570	63.061831
453.403015	63.069705
453.565460	63.079930
453.727875	63.091480
453.890289	63.103643
454.052704	63.118299
454.215118	63.131321
454.377533	63.144436
454.539917	63.157650
454.702301	63.171866
454.864685	63.187977
455.027039	63.205967
455.189392	63.223883
455.351746	63.242054
455.514099	63.259695
455.676453	63.276988
455.838776	63.292363
456.001099	63.309418
456.163422	63.326309
456.325745	63.342334
456.488037	63.357243
